Freq[Hz]        [Ohm]           Phase[Deg]
10.00           6.77            0.85
10.08           6.76            0.84
10.15           6.75            0.83
10.23           6.74            0.85
10.31           6.74            0.88
10.38           6.74            0.92
10.46           6.74            0.98
10.54           6.74            1.05
10.62           6.75            1.11
10.70           6.75            1.18
10.78           6.76            1.24
10.86           6.76            1.29
10.95           6.77            1.32
11.03           6.77            1.33
11.11           6.78            1.31
11.20           6.78            1.28
11.28           6.78            1.23
11.37           6.78            1.18
11.45           6.78            1.13
11.54           6.77            1.08
11.63           6.77            1.04
11.71           6.77            1.03
11.80           6.77            1.03
11.89           6.76            1.06
11.98           6.76            1.10
12.07           6.76            1.16
12.16           6.75            1.22
12.26           6.75            1.28
12.35           6.75            1.34
12.44           6.75            1.38
12.54           6.75            1.40
12.63           6.76            1.41
12.73           6.76            1.41
12.82           6.77            1.39
12.92           6.77            1.37
13.02           6.78            1.34
13.12           6.78            1.32
13.21           6.78            1.31
13.31           6.78            1.30
13.41           6.77            1.30
13.52           6.77            1.31
13.62           6.76            1.32
13.72           6.76            1.34
13.83           6.75            1.37
13.93           6.75            1.40
14.04           6.75            1.43
14.14           6.75            1.46
14.25           6.76            1.50
14.36           6.76            1.52
14.46           6.77            1.54
14.57           6.77            1.56
14.68           6.77            1.56
14.80           6.77            1.55
14.91           6.77            1.53
15.02           6.77            1.51
15.13           6.77            1.49
15.25           6.77            1.48
15.36           6.76            1.48
15.48           6.76            1.50
15.60           6.76            1.53
15.71           6.76            1.58
15.83           6.76            1.62
15.95           6.76            1.66
16.07           6.76            1.70
16.19           6.76            1.71
16.32           6.77            1.72
16.44           6.77            1.71
16.56           6.77            1.69
16.69           6.77            1.68
16.82           6.77            1.67
16.94           6.77            1.67
17.07           6.77            1.68
17.20           6.77            1.70
17.33           6.76            1.72
17.46           6.76            1.75
17.59           6.76            1.78
17.73           6.76            1.81
17.86           6.76            1.84
18.00           6.77            1.86
18.13           6.77            1.88
18.27           6.77            1.89
18.41           6.77            1.89
18.55           6.77            1.88
18.69           6.77            1.87
18.83           6.77            1.87
18.97           6.77            1.87
19.11           6.77            1.89
19.26           6.76            1.92
19.40           6.76            1.96
19.55           6.76            2.00
19.70           6.76            2.03
19.85           6.77            2.06
20.00           6.77            2.07
20.15           6.77            2.07
20.30           6.77            2.06
20.45           6.77            2.06
20.61           6.77            2.06
20.77           6.77            2.07
20.92           6.77            2.08
21.08           6.77            2.11
21.24           6.76            2.14
21.40           6.76            2.17
21.56           6.77            2.21
21.73           6.77            2.24
21.89           6.77            2.26
22.05           6.77            2.27
22.22           6.77            2.27
22.39           6.77            2.26
22.56           6.77            2.25
22.73           6.77            2.26
22.90           6.77            2.28
23.07           6.77            2.31
23.25           6.77            2.35
23.42           6.77            2.39
23.60           6.77            2.42
23.78           6.77            2.44
23.96           6.77            2.46
24.14           6.78            2.46
24.32           6.78            2.46
24.51           6.78            2.46
24.69           6.77            2.46
24.88           6.77            2.47
25.07           6.77            2.50
25.26           6.77            2.55
25.45           6.77            2.59
25.64           6.77            2.63
25.83           6.77            2.66
26.03           6.78            2.67
26.23           6.78            2.67
26.43           6.78            2.67
26.63           6.78            2.67
26.83           6.77            2.68
27.03           6.77            2.70
27.23           6.77            2.73
27.44           6.77            2.78
27.65           6.77            2.83
27.86           6.77            2.86
28.07           6.78            2.88
28.28           6.78            2.88
28.49           6.78            2.88
28.71           6.78            2.88
28.93           6.78            2.89
29.14           6.77            2.91
29.36           6.77            2.95
29.59           6.77            2.99
29.81           6.77            3.04
30.04           6.78            3.08
30.26           6.78            3.10
30.49           6.78            3.10
30.72           6.78            3.09
30.95           6.78            3.10
31.19           6.78            3.11
31.42           6.77            3.14
31.66           6.77            3.19
31.90           6.77            3.24
32.14           6.78            3.29
32.39           6.78            3.32
32.63           6.78            3.32
32.88           6.78            3.32
33.13           6.78            3.32
33.38           6.78            3.33
33.63           6.78            3.36
33.88           6.78            3.41
34.14           6.78            3.47
34.40           6.78            3.52
34.66           6.78            3.54
34.92           6.79            3.55
35.18           6.79            3.55
35.45           6.79            3.56
35.72           6.78            3.57
35.99           6.78            3.60
36.26           6.78            3.66
36.53           6.78            3.72
36.81           6.78            3.76
37.09           6.79            3.78
37.37           6.79            3.79
37.65           6.79            3.79
37.94           6.79            3.80
38.22           6.78            3.82
38.51           6.78            3.87
38.80           6.78            3.93
39.10           6.78            3.98
39.39           6.79            4.02
39.69           6.79            4.04
39.99           6.79            4.04
40.29           6.79            4.04
40.60           6.79            4.07
40.90           6.78            4.12
41.21           6.78            4.17
41.53           6.79            4.23
41.84           6.79            4.27
42.16           6.79            4.28
42.47           6.79            4.29
42.80           6.79            4.30
43.12           6.79            4.33
43.45           6.79            4.38
43.77           6.79            4.44
44.10           6.79            4.49
44.44           6.79            4.53
44.77           6.80            4.54
45.11           6.80            4.54
45.45           6.79            4.56
45.80           6.79            4.60
46.14           6.79            4.66
46.49           6.79            4.73
46.84           6.80            4.78
47.20           6.80            4.80
47.56           6.80            4.81
47.91           6.80            4.82
48.28           6.80            4.85
48.64           6.79            4.91
49.01           6.79            4.98
49.38           6.80            5.03
49.75           6.80            5.07
50.13           6.80            5.08
50.51           6.80            5.09
50.89           6.80            5.13
51.28           6.80            5.18
51.66           6.80            5.25
52.05           6.80            5.30
52.45           6.80            5.34
52.84           6.81            5.35
53.24           6.81            5.37
53.65           6.80            5.41
54.05           6.80            5.47
54.46           6.80            5.54
54.87           6.81            5.59
55.29           6.81            5.62
55.71           6.81            5.64
56.13           6.81            5.67
56.55           6.81            5.72
56.98           6.81            5.79
57.41           6.81            5.85
57.84           6.81            5.90
58.28           6.81            5.93
58.72           6.81            5.95
59.17           6.81            5.98
59.61           6.81            6.05
60.06           6.81            6.12
60.52           6.82            6.18
60.98           6.82            6.21
61.44           6.82            6.23
61.90           6.82            6.27
62.37           6.82            6.32
62.84           6.82            6.40
63.32           6.82            6.46
63.79           6.82            6.51
64.28           6.82            6.54
64.76           6.82            6.57
65.25           6.82            6.63
65.75           6.82            6.70
66.24           6.82            6.77
66.74           6.83            6.82
67.25           6.83            6.86
67.76           6.83            6.89
68.27           6.83            6.95
68.79           6.83            7.02
69.31           6.83            7.08
69.83           6.83            7.13
70.36           6.84            7.17
70.89           6.84            7.22
71.43           6.83            7.28
71.97           6.83            7.36
72.51           6.84            7.43
73.06           6.84            7.48
73.61           6.84            7.53
74.17           6.84            7.58
74.73           6.84            7.65
75.29           6.84            7.72
75.86           6.84            7.79
76.44           6.85            7.84
77.01           6.85            7.88
77.60           6.85            7.94
78.18           6.85            8.01
78.77           6.85            8.09
79.37           6.85            8.15
79.97           6.86            8.20
80.58           6.86            8.26
81.18           6.86            8.34
81.80           6.86            8.42
82.42           6.86            8.50
83.04           6.86            8.55
83.67           6.86            8.61
84.30           6.86            8.67
84.94           6.86            8.75
85.58           6.87            8.83
86.23           6.87            8.89
86.88           6.87            8.95
87.54           6.87            9.02
88.20           6.87            9.11
88.87           6.88            9.19
89.54           6.88            9.27
90.21           6.88            9.33
90.90           6.88            9.41
91.58           6.88            9.49
92.28           6.88            9.58
92.97           6.89            9.65
93.68           6.89            9.71
94.39           6.89            9.78
95.10           6.89            9.87
95.82           6.89            9.96
96.54           6.90            10.05
97.27           6.90            10.12
98.01           6.90            10.21
98.75           6.90            10.30
99.50           6.90            10.39
100.25          6.91            10.47
101.01          6.91            10.54
101.77          6.91            10.63
102.54          6.91            10.72
103.31          6.92            10.81
104.10          6.92            10.90
104.88          6.92            10.98
105.68          6.92            11.08
106.47          6.93            11.19
107.28          6.93            11.29
108.09          6.93            11.38
108.91          6.93            11.46
109.73          6.94            11.55
110.56          6.94            11.65
111.40          6.94            11.75
112.24          6.95            11.85
113.09          6.95            11.95
113.94          6.95            12.06
114.81          6.96            12.17
115.67          6.96            12.28
116.55          6.96            12.37
117.43          6.96            12.47
118.32          6.97            12.58
119.21          6.97            12.68
120.11          6.97            12.79
121.02          6.98            12.90
121.94          6.98            13.03
122.86          6.99            13.15
123.79          6.99            13.27
124.72          6.99            13.37
125.67          7.00            13.48
126.62          7.00            13.60
127.57          7.01            13.71
128.54          7.01            13.83
129.51          7.02            13.96
130.49          7.02            14.09
131.48          7.02            14.23
132.47          7.03            14.35
133.47          7.03            14.47
134.48          7.04            14.60
135.50          7.04            14.72
136.52          7.05            14.85
137.56          7.05            14.98
138.60          7.06            15.14
139.64          7.06            15.28
140.70          7.07            15.42
141.76          7.07            15.55
142.84          7.08            15.68
143.92          7.08            15.82
145.00          7.09            15.97
146.10          7.10            16.13
147.20          7.11            16.28
148.32          7.11            16.44
149.44          7.12            16.59
150.57          7.12            16.74
151.71          7.13            16.88
152.85          7.14            17.04
154.01          7.15            17.21
155.18          7.15            17.39
156.35          7.16            17.56
157.53          7.17            17.73
158.72          7.17            17.89
159.92          7.18            18.04
161.13          7.19            18.21
162.35          7.20            18.40
163.58          7.21            18.60
164.81          7.22            18.79
166.06          7.22            18.96
167.32          7.23            19.14
168.58          7.25            19.32
169.86          7.26            19.51
171.14          7.27            19.72
172.43          7.28            19.93
173.74          7.29            20.13
175.05          7.30            20.33
176.38          7.31            20.52
177.71          7.32            20.71
179.05          7.33            20.94
180.41          7.34            21.19
181.77          7.36            21.42
183.14          7.37            21.61
184.53          7.38            21.81
185.93          7.40            22.05
187.33          7.41            22.30
188.75          7.43            22.55
190.17          7.44            22.79
191.61          7.45            23.02
193.06          7.47            23.26
194.52          7.50            23.64
195.99          7.52            23.97
197.47          7.53            24.23
198.97          7.55            24.48
200.47          7.57            24.74
201.99          7.59            25.00
203.51          7.62            25.27
205.05          7.63            25.57
206.60          7.65            25.85
208.17          7.67            26.11
209.74          7.69            26.37
211.33          7.73            26.72
212.92          7.75            27.10
214.53          7.77            27.41
216.16          7.79            27.69
217.79          7.82            27.95
219.44          7.86            28.39
221.10          7.89            28.73
222.77          7.91            29.05
224.45          7.94            29.42
226.15          7.99            29.78
227.86          8.02            30.09
229.58          8.05            30.51
231.32          8.08            30.95
233.07          8.12            31.26
234.83          8.18            31.72
236.61          8.22            32.06
238.39          8.25            32.50
240.20          8.29            32.94
242.01          8.35            33.37
243.84          8.41            33.80
245.69          8.46            34.24
247.55          8.50            34.70
249.42          8.56            35.22
251.30          8.62            35.60
253.20          8.70            36.22
255.12          8.76            36.69
257.05          8.82            37.12
258.99          8.90            37.66
260.95          8.98            38.21
262.92          9.05            38.80
264.91          9.15            39.39
266.91          9.24            39.82
268.93          9.35            40.40
270.96          9.43            40.96
273.01          9.53            41.67
275.08          9.66            42.35
277.16          9.82            43.02
279.25          9.94            43.53
281.36          10.06           44.07
283.49          10.19           44.74
285.64          10.35           45.62
287.80          10.54           46.50
289.97          10.74           47.13
292.16          10.96           47.63
294.37          11.15           48.27
296.60          11.33           49.04
298.84          11.54           49.93
301.10          11.82           50.86
303.38          12.15           51.75
305.67          12.47           52.37
307.98          12.85           52.86
310.31          13.16           53.50
312.66          13.52           54.56
315.02          13.89           55.59
317.40          14.48           56.79
319.80          15.08           57.76
322.22          15.80           58.45
324.66          16.47           58.79
327.11          17.35           59.41
329.59          18.01           60.11
332.08          18.89           61.11
334.59          20.08           62.48
337.12          21.56           63.98
339.67          23.50           65.03
342.24          25.60           65.50
344.83          29.02           65.50
347.43          32.57           64.56
350.06          36.94           62.71
352.71          42.87           59.72
355.37          48.10           56.56
358.06          56.64           50.89
360.77          67.31           43.34
363.50          78.15           34.08
366.25          89.82           21.36
369.01          98.76           2.60
371.80          94.49           -18.47
374.62          79.46           -36.07
377.45          63.66           -46.58
380.30          51.57           -52.34
383.18          45.14           -54.95
386.08          38.87           -56.87
388.99          34.03           -57.92
391.94          30.43           -58.74
394.90          26.95           -58.86
397.89          24.65           -58.87
400.89          22.85           -58.73
403.93          21.26           -58.16
406.98          19.89           -57.79
410.06          18.79           -57.19
413.16          17.65           -56.29
416.28          16.69           -55.60
419.43          15.98           -54.64
422.60          15.19           -53.65
425.80          14.57           -52.61
429.02          14.07           -51.31
432.26          13.53           -49.87
435.53          13.26           -48.38
438.82          13.03           -46.66
442.14          13.03           -45.90
445.48          13.07           -45.94
448.85          12.83           -47.15
452.24          12.39           -47.70
455.66          11.83           -47.32
459.11          11.45           -46.60
462.58          11.09           -45.49
466.08          10.76           -44.35
469.60          10.47           -42.91
473.15          10.19           -41.58
476.73          10.00           -40.22
480.34          9.77            -38.69
483.97          9.61            -37.20
487.63          9.45            -35.51
491.31          9.36            -34.01
495.03          9.33            -32.31
498.77          9.35            -30.76
502.54          9.47            -29.31
506.34          9.65            -28.23
510.17          9.91            -27.59
514.03          10.16           -27.64
517.92          10.44           -28.52
521.83          10.53           -30.17
525.78          10.46           -31.87
529.75          10.17           -33.38
533.76          9.92            -34.12
537.80          9.61            -34.40
541.86          9.41            -34.39
